File: driven_nickelate/characterization/xrd/NNO_fit_f=1.csv
40,5.93603
40.08,5.19449
40.16,4.7923
40.24,4.92413
40.32,5.6115
40.4,6.68482
40.48,7.83064
40.56,8.69155
40.64,8.98764
40.72,8.61873
40.8,7.71099
40.88,6.58806
40.96,5.67201
41.04,5.34343
41.12,5.80644
41.2,7.00557
41.28,8.62659
41.36,10.1872
41.44,11.1922
41.52,11.3048
41.6,10.4759
41.68,8.98258
41.76,7.35806
41.84,6.22628
41.92,6.09264
42,7.15885
42.08,9.2279
42.16,11.7392
42.24,13.9328
42.32,15.096
42.4,14.8162
42.48,13.151
42.56,10.6513
42.64,8.21612
42.72,6.81226
42.8,7.14538
42.88,9.38904
42.96,13.0719
43.04,17.1768
43.12,20.4396
43.2,21.7632
43.28,20.619
43.36,17.2928
43.44,12.8772
43.52,8.98273
43.6,7.23742
43.68,8.72206
43.76,13.5283
43.84,20.6061
43.92,27.9874
44,33.3568
44.08,34.8159
44.16,31.6051
44.24,24.5285
44.32,15.8974
44.4,8.94466
44.48,6.83448
44.56,11.5499
44.64,23.0178
44.72,38.8088
44.8,54.6026
44.88,65.3874
44.96,67.1036
45.04,58.2551
45.12,40.9331
45.2,20.8043
45.28,5.87392
45.36,4.20446
45.44,21.1477
45.52,56.9143
45.6,105.362
45.68,154.675
45.76,190.158
45.84,198.762
45.92,174.356
46,122.346
46.08,62.165
46.16,26.5135
46.24,57.0617
46.32,197.549
46.4,486.924
46.48,957.933
46.56,1653.5
46.64,2699.22
46.72,4605.13
46.8,10022.5
46.88,47493.2
46.96,2.14128e+06
47.04,40074.7
47.12,14179.6
47.2,7425.89
47.28,4174.4
47.36,2234.04
47.44,1139.62
47.52,808.391
47.6,1233.22
47.68,2379.1
47.76,4143.63
47.84,6349.18
47.92,8756.47
48,11092.7
48.08,13088.2
48.16,14513.1
48.24,15210.1
48.32,15113.7
48.4,14256.7
48.48,12760.3
48.56,10812
48.64,8634.63
48.72,6452
48.8,4458.39
48.88,2795.15
48.96,1538.59
49.04,699.527
49.12,233.415
49.2,57.7265
49.28,72.6544
49.36,180.881
49.44,303.029
49.52,386.681
49.6,408.45
49.68,370.014
49.76,290.105
49.84,194.918
49.92,109.292
50,50.4186
50.08,24.9549
50.16,29.4758
50.24,53.4457
50.32,83.4497
50.4,107.358
50.48,117.357
50.56,111.26
50.64,92.0679
50.72,66.1877
50.8,41.0259
50.88,22.7077
50.96,14.5241
51.04,16.4206
51.12,25.5081
51.2,37.3013
51.28,47.2321
51.36,51.973
51.44,50.2234
51.52,42.8095
51.6,32.1596
51.68,21.3869
51.76,13.2895
51.84,9.56791
51.92,10.4554
52,14.8198
52.08,20.6516
52.16,25.7525
52.24,28.4021
52.32,27.8113
52.4,24.254
52.48,18.8733
52.56,13.252
52.64,8.89897
52.72,6.80801
52.8,7.21341
52.88,9.59276
52.96,12.8931
53.04,15.8925
53.12,17.5778
53.2,17.4264
53.28,15.5173
53.36,12.4542
53.44,9.13986
53.52,6.48197
53.6,5.1218
53.68,5.2652
53.76,6.65663
53.84,8.69219
53.92,10.627
54,11.8078
54.08,11.8606
54.16,10.7801
54.24,8.90328
54.32,6.78356
54.4,5.00945
54.48,4.0266
54.56,4.01518
54.64,4.85493
54.72,6.18196
54.8,7.51394
54.88,8.40178
54.96,8.56101
55.04,7.9453
55.12,6.74439
55.2,5.31197
55.28,4.04976
55.36,3.28477
55.44,3.17673
55.52,3.68104
55.6,4.57472
55.68,5.53357
55.76,6.2347
55.84,6.45227
55.92,6.11875
56,5.33549
56.08,4.33273
56.16,3.39373
56.24,2.76765
56.32,2.59759
56.4,2.88409
56.48,3.49297
56.56,4.20249
56.64,4.77379
56.72,5.02249
56.8,4.87029
56.88,4.3624
56.96,3.6476
57.04,2.92881
57.12,2.40028
57.2,2.19066
57.28,2.32841
57.36,2.73845
57.44,3.26952
57.52,3.74257
57.6,4.00485
57.68,3.97359
57.76,3.65694
57.84,3.1471
57.92,2.58921
58,2.13608
58.08,1.903
58.16,1.93557
58.24,2.19962
58.32,2.59488
58.4,2.98742
58.48,3.25045
58.56,3.30104
58.64,3.12249
58.72,2.7662
58.8,2.33362
58.88,1.94437
58.96,1.70055
59.04,1.65764
59.12,1.81032
59.2,2.09668
59.28,2.4186
59.36,2.67189
59.44,2.77685
59.52,2.70042
59.6,2.46389
59.68,2.1344
59.76,1.80362
59.84,1.5601
59.92,1.46374
60,1.52955