File: driven_nickelate/characterization/xrd/NNO_fit_f=0.5.csv
40,3.68559
40.08,7.34849
40.16,11.6483
40.24,14.9606
40.32,15.9909
40.4,14.2984
40.48,10.5039
40.56,6.08637
40.64,2.8344
40.72,2.15302
40.8,4.49388
40.88,9.13724
40.96,14.4257
41.04,18.3767
41.12,19.4496
41.2,17.1722
41.28,12.3755
41.36,6.92735
41.44,3.0462
41.52,2.4455
41.6,5.63545
41.68,11.6631
41.76,18.4138
41.84,23.3828
41.92,24.6397
42,21.6174
42.08,15.4089
42.16,8.42983
42.24,3.5447
42.32,2.96913
42.4,7.36321
42.48,15.4811
42.56,24.5453
42.64,31.242
42.72,32.9875
42.8,28.9885
42.88,20.6712
42.96,11.2717
43.04,4.69302
43.12,4.02416
43.2,10.2741
43.28,21.8269
43.36,34.8809
43.44,44.7725
43.52,47.7364
43.6,42.4535
43.68,30.7701
43.76,17.2438
43.84,7.59737
43.92,6.58756
44,16.062
44.08,33.9725
44.16,54.8103
44.24,71.4284
44.32,77.6786
44.4,70.9291
44.48,53.4811
44.56,32.2283
44.64,16.5024
44.72,14.7334
44.8,31.0704
44.88,63.2504
44.96,102.68
45.04,136.978
45.12,154.322
45.2,148.212
45.28,120.883
45.36,83.928
45.44,55.4525
45.52,54.3359
45.6,93.2606
45.68,172.914
45.76,279.722
45.84,388.614
45.92,470.855
46,505.272
46.08,489.884
46.16,450.485
46.24,443.536
46.32,552.911
46.4,883.874
46.48,1564.41
46.56,2779.95
46.64,4923.59
46.72,9223.59
46.8,21338.8
46.88,98432.1
46.96,3.95111e+06
47.04,64977.8
47.12,21357.7
47.2,11095.3
47.28,6569.47
47.36,3929.09
47.44,2292.36
47.52,1436.68
47.6,1295.1
47.68,1799.25
47.76,2826.29
47.84,4192.34
47.92,5672.06
48,7032.33
48.08,8069.13
48.16,8639.09
48.24,8678.47
48.32,8206.77
48.4,7315.03
48.48,6142.54
48.56,4847.86
48.64,3580.33
48.72,2457.65
48.8,1553.01
48.88,892.713
48.96,462.78
49.04,221.632
49.12,114.816
49.2,88.3521
49.28,98.2
49.36,114.827
49.44,123.219
49.52,119.688
49.6,107.24
49.68,91.1654
49.76,75.9178
49.84,63.7223
49.92,54.6615
50,47.6334
50.08,41.474
50.16,35.7054
50.24,30.6794
50.32,27.1998
50.4,25.9136
50.48,26.8087
50.56,29.0587
50.64,31.2712
50.72,32.0142
50.8,30.3845
50.88,26.3757
50.96,20.8972
51.04,15.4398
51.12,11.5235
51.2,10.1403
51.28,11.4014
51.36,14.5118
51.44,18.0734
51.52,20.5942
51.6,21.0144
51.68,19.0612
51.76,15.3122
51.84,10.9586
51.92,7.363
52,5.57724
52.08,5.98954
52.16,8.21905
52.24,11.2823
52.32,13.9612
52.4,15.2342
52.48,14.6204
52.56,12.3183
52.64,9.10499
52.72,6.03972
52.8,4.08475
52.88,3.77835
52.96,5.06957
53.04,7.36394
53.12,9.75384
53.2,11.3453
53.28,11.5644
53.36,10.3387
53.44,8.09816
53.52,5.60363
53.6,3.66999
53.68,2.88419
53.76,3.41462
53.84,4.97286
53.92,6.93349
54,8.56358
54.08,9.27821
54.16,8.83365
54.24,7.39503
54.32,5.46144
54.4,3.6804
54.48,2.62021
54.56,2.5795
54.64,3.49727
54.72,4.98936
54.8,6.49339
54.88,7.46786
54.96,7.57555
55.04,6.78941
55.12,5.38854
55.2,3.85034
55.28,2.68001
55.36,2.2378
55.44,2.62281
55.52,3.65005
55.6,4.92481
55.68,5.9849
55.76,6.45987
55.84,6.19266
55.92,5.28416
56,4.04886
56.08,2.90007
56.16,2.20645
56.24,2.16929
56.32,2.76108
56.4,3.74361
56.48,4.75628
56.56,5.44225
56.64,5.56834
56.72,5.09887
56.8,4.20017
56.88,3.17718
56.96,2.36592
57.04,2.01948
57.12,2.22621
57.2,2.88607
57.28,3.75093
57.36,4.51303
57.44,4.91006
57.52,4.8113
57.6,4.25661
57.68,3.43709
57.76,2.62601
57.84,2.08477
57.92,1.97608
58,2.31322
58.08,2.96068
58.16,3.68434
58.24,4.23269
58.32,4.42099
58.4,4.19041
58.48,3.62333
58.56,2.91132
58.64,2.288
58.72,1.95027
58.8,1.99429
58.88,2.38695
58.96,2.98101
59.04,3.5674
59.12,3.94628
59.2,3.9927
59.28,3.69536
59.36,3.15682
59.44,2.55607
59.52,2.08724
59.6,1.8953
59.68,2.02988
59.76,2.43196
59.84,2.95655
59.92,3.42287
60,3.67474